*RAS_DATA_START
*RAS_HEADER_START
*DISP_FMT_X "%.2f"
*DISP_FMT_Y "%.0f"
*DISP_FULLSCALE "87780.4785090000"
*DISP_LINE_COLOR "255.0000000000"
*DISP_LINE_STYLE "0.0000000000"
*DISP_LINE_WIDTH "0.2500000000"
*DISP_NOTE "測定データ-3"
*DISP_OFFSET_Y "0.0000000000"
*DISP_PEAKSEARCH_UNIT_Y "cps"
*DISP_RANGE_BOTTOM "0.0000000000"
*DISP_RANGE_LEFT "5.0000000000"
*DISP_RANGE_LOGCUTOFF "0.0100000000"
*DISP_RANGE_RIGHT "60.0000000000"
*DISP_RANGE_TOP "87780.4785090000"
*DISP_SCALE_MODE_Y "0.0000000000"
*DISP_TAB_NAME "2θ/ω"
*DISP_TITLE_Y "強度"
*DISP_UNIT_Y "cps"
*DISP_WINDOW_NAME "MSG_MACROENGINE"
*FILE_COMMENT " "
*FILE_MD5 ""
*FILE_MEMO " "
*FILE_OPERATOR "administrator"
*FILE_PART_ID "MEAS_KHP2_00068"
*FILE_SAMPLE " "
*FILE_TYPE "RAS_RAW"
*FILE_USERGROUP "システムマネージャ"
*FILE_VERSION "1.0000000000"
*HW_ATTACHMENT_ID "ATT0022"
*HW_ATTACHMENT_NAME "RxRy|RxRy"
*HW_COUNTER_ID-0 "CUT0041"
*HW_COUNTER_ID-1 "CUT0020"
*HW_COUNTER_ID-2 ""
*HW_COUNTER_ID-3 "CSL0021"
*HW_COUNTER_ID-4 "CMC0021"
*HW_COUNTER_NAME-0 "D/teX Ultra 250|D/teX Ultra 250"
*HW_COUNTER_NAME-1 "None|None"
*HW_COUNTER_NAME-2 ""
*HW_COUNTER_NAME-3 "BBM|BBM"
*HW_COUNTER_NAME-4 "検出器モノクロメータ|Detector monochromator"
*HW_COUNTER_SELECT_NAME "D/teX Ultra 250|D/teX Ultra 250"
*HW_GONIOMETER_ID "GON0023"
*HW_GONIOMETER_NAME "SmartLab|SmartLab"
*HW_GONIOMETER_RADIUS-0 "90.0"
*HW_GONIOMETER_RADIUS-1 "114.0"
*HW_GONIOMETER_RADIUS-2 "190.0"
*HW_GONIOMETER_RADIUS-3 "300.0"
*HW_GONIOMETER_RADIUS-4 "187.0"
*HW_GONIOMETER_RADIUS-5 "300.0"
*HW_GONIOMETER_RADIUS-6 "113.0"
*HW_GONIOMETER_RADIUS-7 "331.0"
*HW_I_OPT_ID-0 "CBO0021"
*HW_I_OPT_ID-1 "ICR0023"
*HW_I_OPT_ID-2 "ISL0021"
*HW_I_OPT_ID-3 "ISO0021"
*HW_I_OPT_ID-4 "IAD0021"
*HW_I_OPT_ID-5 "IPR0001"
*HW_I_OPT_NAME-0 "CBOユニット|CBO unit"
*HW_I_OPT_NAME-1 "標準入射光学ユニット|Standard incident optical unit"
*HW_I_OPT_NAME-2 "標準入射スリットボックス|Standard incident slit box"
*HW_I_OPT_NAME-3 "入射平行スリット|Incident parallel slit"
*HW_I_OPT_NAME-4 "長手制限スリット|Length limiting slit"
*HW_I_OPT_NAME-5 "None|None"
*HW_R_ATTENUATER_AUTOMODE "0"
*HW_R_OPT_ID-0 "RSS0021"
*HW_R_OPT_ID-1 "RCR0023"
*HW_R_OPT_ID-2 "RSO0021"
*HW_R_OPT_ID-3 "RRS0021"
*HW_R_OPT_ID-4 "ATN0021"
*HW_R_OPT_ID-5 "RFL0021"
*HW_R_OPT_ID-6 "RAD0021"
*HW_R_OPT_NAME-0 "標準受光スリットボックス1|Standard receiving slit box # 1"
*HW_R_OPT_NAME-1 "標準受光光学ユニット1|Standard receiving unit # 1"
*HW_R_OPT_NAME-2 "標準受光光学ユニット2|Standard receiving optical unit # 2"
*HW_R_OPT_NAME-3 "標準受光スリットボックス2|Standard receiving slit box # 2"
*HW_R_OPT_NAME-4 "標準アッテネータ|Standard Attenuator"
*HW_R_OPT_NAME-5 "Cu Kβ|Cu K-beta"
*HW_R_OPT_NAME-6 "調整用受光スリット|Alignment receiving slit"
*HW_SAMPLE_HOLDER_ID "SMP0026"
*HW_SAMPLE_HOLDER_NAME "Z-φステージ|Z-Phi Stage"
*HW_XG_CURRENT_MAX "50"
*HW_XG_CURRENT_MIN "2"
*HW_XG_CURRENT_RESOLUTION "1"
*HW_XG_CURRENT_UNIT "mA"
*HW_XG_FOCUS "1mm x 10mm"
*HW_XG_FOCUS_TYPE "Normal"
*HW_XG_ID ""
*HW_XG_NAME "3kW 封入管(ID:1200)|3kW Sealed tube(ID:1200)"
*HW_XG_TARGET_ATOMIC_NUMBER "29.0000000000"
*HW_XG_TARGET_NAME "Cu"
*HW_XG_TYPE "Hermetic"
*HW_XG_VOLTAGE_MAX "60"
*HW_XG_VOLTAGE_MIN "20"
*HW_XG_VOLTAGE_RESOLUTION "1"
*HW_XG_VOLTAGE_UNIT "kV"
*HW_XG_WATT_MAX "1"
*HW_XG_WATT_UNIT "kW"
*HW_XG_WAVE_LENGTH_ALPHA1 "1.540593"
*HW_XG_WAVE_LENGTH_ALPHA2 "1.544414"
*HW_XG_WAVE_LENGTH_BETA "1.392250"
*MEAS_COND_AXIS_NAME-0 "2θ/θ"
*MEAS_COND_AXIS_NAME-1 "2θ"
*MEAS_COND_AXIS_NAME-2 "ω"
*MEAS_COND_AXIS_NAME-3 "φ"
*MEAS_COND_AXIS_NAME-4 "Z"
*MEAS_COND_AXIS_NAME-5 "Rx"
*MEAS_COND_AXIS_NAME-6 "Ry"
*MEAS_COND_AXIS_NAME-7 "2θ/ω"
*MEAS_COND_AXIS_NAME-8 "θs"
*MEAS_COND_AXIS_NAME-9 "θd"
*MEAS_COND_AXIS_NAME-10 "Ts"
*MEAS_COND_AXIS_NAME-11 "CBO選択スリット"
*MEAS_COND_AXIS_NAME-12 "M"
*MEAS_COND_AXIS_NAME-13 "入射平行スリット"
*MEAS_COND_AXIS_NAME-14 "入射スリット"
*MEAS_COND_AXIS_NAME-15 ""
*MEAS_COND_AXIS_NAME-16 "Zs"
*MEAS_COND_AXIS_NAME-17 "入射光学素子"
*MEAS_COND_AXIS_NAME-18 "長手制限スリット"
*MEAS_COND_AXIS_NAME-19 "センタースリット"
*MEAS_COND_AXIS_NAME-20 "フィルター"
*MEAS_COND_AXIS_NAME-21 "受光スリット1"
*MEAS_COND_AXIS_NAME-22 "受光スリット2"
*MEAS_COND_AXIS_NAME-23 "受光光学素子"
*MEAS_COND_AXIS_NAME-24 "受光平行スリット"
*MEAS_COND_AXIS_NAME-25 "調整用受光スリット"
*MEAS_COND_AXIS_NAME-26 ""
*MEAS_COND_AXIS_NAME-27 ""
*MEAS_COND_AXIS_NAME-28 "Zd"
*MEAS_COND_AXIS_NAME-29 "アッテネータ"
*MEAS_COND_AXIS_NAME-30 "検出器モノクロメータ"
*MEAS_COND_AXIS_NAME-31 "モノクロメータスリット"
*MEAS_COND_AXIS_NAME-32 "プライマリビーム"
*MEAS_COND_AXIS_NAME-33 "PHA"
*MEAS_COND_AXIS_NAME_INTERNAL-0 "TwoThetaTheta"
*MEAS_COND_AXIS_NAME_INTERNAL-1 "TwoTheta"
*MEAS_COND_AXIS_NAME_INTERNAL-2 "Omega"
*MEAS_COND_AXIS_NAME_INTERNAL-3 "Phi"
*MEAS_COND_AXIS_NAME_INTERNAL-4 "Z"
*MEAS_COND_AXIS_NAME_INTERNAL-5 "Rx"
*MEAS_COND_AXIS_NAME_INTERNAL-6 "Ry"
*MEAS_COND_AXIS_NAME_INTERNAL-7 "TwoThetaOmega"
*MEAS_COND_AXIS_NAME_INTERNAL-8 "ThetaS"
*MEAS_COND_AXIS_NAME_INTERNAL-9 "ThetaD"
*MEAS_COND_AXIS_NAME_INTERNAL-10 "Ts"
*MEAS_COND_AXIS_NAME_INTERNAL-11 "CBO"
*MEAS_COND_AXIS_NAME_INTERNAL-12 "CBO-M"
*MEAS_COND_AXIS_NAME_INTERNAL-13 "IncidentSollerSlit"
*MEAS_COND_AXIS_NAME_INTERNAL-14 "IncidentSlitBox"
*MEAS_COND_AXIS_NAME_INTERNAL-15 "IncidentSlitBox-_Axis"
*MEAS_COND_AXIS_NAME_INTERNAL-16 "Zs"
*MEAS_COND_AXIS_NAME_INTERNAL-17 "IncidentMonochromator"
*MEAS_COND_AXIS_NAME_INTERNAL-18 "IncidentAxdSlit"
*MEAS_COND_AXIS_NAME_INTERNAL-19 "CenterSlit"
*MEAS_COND_AXIS_NAME_INTERNAL-20 "Filter"
*MEAS_COND_AXIS_NAME_INTERNAL-21 "ReceivingSlitBox1"
*MEAS_COND_AXIS_NAME_INTERNAL-22 "ReceivingSlitBox2"
*MEAS_COND_AXIS_NAME_INTERNAL-23 "ReceivingOptics"
*MEAS_COND_AXIS_NAME_INTERNAL-24 "ReceivingSollerSlit"
*MEAS_COND_AXIS_NAME_INTERNAL-25 "ReceivingAxdSlit"
*MEAS_COND_AXIS_NAME_INTERNAL-26 "ReceivingSlitBox1-_Axis"
*MEAS_COND_AXIS_NAME_INTERNAL-27 "ReceivingSlitBox2-_Axis"
*MEAS_COND_AXIS_NAME_INTERNAL-28 "ReceivingSlitBox2-Zd"
*MEAS_COND_AXIS_NAME_INTERNAL-29 "Attenuator"
*MEAS_COND_AXIS_NAME_INTERNAL-30 "CounterMonochromator"
*MEAS_COND_AXIS_NAME_INTERNAL-31 "CounterSlit"
*MEAS_COND_AXIS_NAME_INTERNAL-32 "IncidentPrimary"
*MEAS_COND_AXIS_NAME_INTERNAL-33 "PHA"
*MEAS_COND_AXIS_NAME_MAGICNO-0 "83951616.0000000000"
*MEAS_COND_AXIS_NAME_MAGICNO-1 "268632064.0000000000"
*MEAS_COND_AXIS_NAME_MAGICNO-2 "268500992.0000000000"
*MEAS_COND_AXIS_NAME_MAGICNO-3 "268500992.0000000000"
*MEAS_COND_AXIS_NAME_MAGICNO-4 "285278208.0000000000"
*MEAS_COND_AXIS_NAME_MAGICNO-5 "285278208.0000000000"
*MEAS_COND_AXIS_NAME_MAGICNO-6 "285278208.0000000000"
*MEAS_COND_AXIS_NAME_MAGICNO-7 "83951616.0000000000"
*MEAS_COND_AXIS_NAME_MAGICNO-8 "131072.0000000000"
*MEAS_COND_AXIS_NAME_MAGICNO-9 "131072.0000000000"
*MEAS_COND_AXIS_NAME_MAGICNO-10 "318898176.0000000000"
*MEAS_COND_AXIS_NAME_MAGICNO-11 "20971521.0000000000"
*MEAS_COND_AXIS_NAME_MAGICNO-12 "285343744.0000000000"
*MEAS_COND_AXIS_NAME_MAGICNO-13 "20971521.0000000000"
*MEAS_COND_AXIS_NAME_MAGICNO-14 "22020097.0000000000"
*MEAS_COND_AXIS_NAME_MAGICNO-15 "25165824.0000000000"
*MEAS_COND_AXIS_NAME_MAGICNO-16 "318898176.0000000000"
*MEAS_COND_AXIS_NAME_MAGICNO-17 "1.0000000000"
*MEAS_COND_AXIS_NAME_MAGICNO-18 "20971521.0000000000"
*MEAS_COND_AXIS_NAME_MAGICNO-19 "20971521.0000000000"
*MEAS_COND_AXIS_NAME_MAGICNO-20 "20971521.0000000000"
*MEAS_COND_AXIS_NAME_MAGICNO-21 "23068673.0000000000"
*MEAS_COND_AXIS_NAME_MAGICNO-22 "23068673.0000000000"
*MEAS_COND_AXIS_NAME_MAGICNO-23 "20971521.0000000000"
*MEAS_COND_AXIS_NAME_MAGICNO-24 "20971521.0000000000"
*MEAS_COND_AXIS_NAME_MAGICNO-25 "20971521.0000000000"
*MEAS_COND_AXIS_NAME_MAGICNO-26 "25165824.0000000000"
*MEAS_COND_AXIS_NAME_MAGICNO-27 "25165824.0000000000"
*MEAS_COND_AXIS_NAME_MAGICNO-28 "285343744.0000000000"
*MEAS_COND_AXIS_NAME_MAGICNO-29 "17301505.0000000000"
*MEAS_COND_AXIS_NAME_MAGICNO-30 "20971521.0000000000"
*MEAS_COND_AXIS_NAME_MAGICNO-31 "20971521.0000000000"
*MEAS_COND_AXIS_NAME_MAGICNO-32 "20971521.0000000000"
*MEAS_COND_AXIS_NAME_MAGICNO-33 "0.0000000000"
*MEAS_COND_AXIS_OFFSET-0 "-"
*MEAS_COND_AXIS_OFFSET-1 "-0.1610000000"
*MEAS_COND_AXIS_OFFSET-2 "0.0255000000"
*MEAS_COND_AXIS_OFFSET-3 "0.0000000000"
*MEAS_COND_AXIS_OFFSET-4 "-"
*MEAS_COND_AXIS_OFFSET-5 "-"
*MEAS_COND_AXIS_OFFSET-6 "-"
*MEAS_COND_AXIS_OFFSET-7 "-"
*MEAS_COND_AXIS_OFFSET-8 "0.0255000000"
*MEAS_COND_AXIS_OFFSET-9 "-0.1865000000"
*MEAS_COND_AXIS_OFFSET-10 "-"
*MEAS_COND_AXIS_OFFSET-11 "-"
*MEAS_COND_AXIS_OFFSET-12 "-"
*MEAS_COND_AXIS_OFFSET-13 "-"
*MEAS_COND_AXIS_OFFSET-14 "-"
*MEAS_COND_AXIS_OFFSET-15 "-"
*MEAS_COND_AXIS_OFFSET-16 "-"
*MEAS_COND_AXIS_OFFSET-17 "-"
*MEAS_COND_AXIS_OFFSET-18 "-"
*MEAS_COND_AXIS_OFFSET-19 "-"
*MEAS_COND_AXIS_OFFSET-20 "-"
*MEAS_COND_AXIS_OFFSET-21 "-"
*MEAS_COND_AXIS_OFFSET-22 "-"
*MEAS_COND_AXIS_OFFSET-23 "-"
*MEAS_COND_AXIS_OFFSET-24 "-"
*MEAS_COND_AXIS_OFFSET-25 "-"
*MEAS_COND_AXIS_OFFSET-26 "-"
*MEAS_COND_AXIS_OFFSET-27 "-"
*MEAS_COND_AXIS_OFFSET-28 "-"
*MEAS_COND_AXIS_OFFSET-29 "-"
*MEAS_COND_AXIS_OFFSET-30 "-"
*MEAS_COND_AXIS_OFFSET-31 "-"
*MEAS_COND_AXIS_OFFSET-32 "-"
*MEAS_COND_AXIS_OFFSET-33 "-"
*MEAS_COND_AXIS_POSITION-0 "38.6200000000"
*MEAS_COND_AXIS_POSITION-1 "38.6200000000"
*MEAS_COND_AXIS_POSITION-2 "19.3100000000"
*MEAS_COND_AXIS_POSITION-3 "0.0000000000"
*MEAS_COND_AXIS_POSITION-4 "0.3021600000"
*MEAS_COND_AXIS_POSITION-5 "0.1089000000"
*MEAS_COND_AXIS_POSITION-6 "-2.3048000000"
*MEAS_COND_AXIS_POSITION-7 "38.6200000000"
*MEAS_COND_AXIS_POSITION-8 "19.3100000000"
*MEAS_COND_AXIS_POSITION-9 "19.3100000000"
*MEAS_COND_AXIS_POSITION-10 "0.1248800000"
*MEAS_COND_AXIS_POSITION-11 "BB"
*MEAS_COND_AXIS_POSITION-12 "0.0000000000"
*MEAS_COND_AXIS_POSITION-13 "Soller_slit_5.0deg"
*MEAS_COND_AXIS_POSITION-14 "1/2deg"
*MEAS_COND_AXIS_POSITION-15 "1.6581000000"
*MEAS_COND_AXIS_POSITION-16 "-0.1909400000"
*MEAS_COND_AXIS_POSITION-17 "0.0000000000"
*MEAS_COND_AXIS_POSITION-18 "10.0mm"
*MEAS_COND_AXIS_POSITION-19 "None"
*MEAS_COND_AXIS_POSITION-20 "Cu_K-beta"
*MEAS_COND_AXIS_POSITION-21 "20.000mm"
*MEAS_COND_AXIS_POSITION-22 "20.000mm"
*MEAS_COND_AXIS_POSITION-23 "No_unit"
*MEAS_COND_AXIS_POSITION-24 "Soller_slit_5.0deg"
*MEAS_COND_AXIS_POSITION-25 "None"
*MEAS_COND_AXIS_POSITION-26 "20.0000000000"
*MEAS_COND_AXIS_POSITION-27 "20.0000000000"
*MEAS_COND_AXIS_POSITION-28 "0.2743700000"
*MEAS_COND_AXIS_POSITION-29 "Open"
*MEAS_COND_AXIS_POSITION-30 "None"
*MEAS_COND_AXIS_POSITION-31 "None"
*MEAS_COND_AXIS_POSITION-32 "None"
*MEAS_COND_AXIS_POSITION-33 "35.0000000000"
*MEAS_COND_AXIS_UNIT-0 "deg"
*MEAS_COND_AXIS_UNIT-1 "deg"
*MEAS_COND_AXIS_UNIT-2 "deg"
*MEAS_COND_AXIS_UNIT-3 "deg"
*MEAS_COND_AXIS_UNIT-4 "mm"
*MEAS_COND_AXIS_UNIT-5 "deg"
*MEAS_COND_AXIS_UNIT-6 "deg"
*MEAS_COND_AXIS_UNIT-7 "deg"
*MEAS_COND_AXIS_UNIT-8 "deg"
*MEAS_COND_AXIS_UNIT-9 "deg"
*MEAS_COND_AXIS_UNIT-10 "mm"
*MEAS_COND_AXIS_UNIT-11 ""
*MEAS_COND_AXIS_UNIT-12 "pulse"
*MEAS_COND_AXIS_UNIT-13 ""
*MEAS_COND_AXIS_UNIT-14 ""
*MEAS_COND_AXIS_UNIT-15 "mm"
*MEAS_COND_AXIS_UNIT-16 "mm"
*MEAS_COND_AXIS_UNIT-17 ""
*MEAS_COND_AXIS_UNIT-18 ""
*MEAS_COND_AXIS_UNIT-19 ""
*MEAS_COND_AXIS_UNIT-20 ""
*MEAS_COND_AXIS_UNIT-21 ""
*MEAS_COND_AXIS_UNIT-22 ""
*MEAS_COND_AXIS_UNIT-23 ""
*MEAS_COND_AXIS_UNIT-24 ""
*MEAS_COND_AXIS_UNIT-25 ""
*MEAS_COND_AXIS_UNIT-26 "mm"
*MEAS_COND_AXIS_UNIT-27 "mm"
*MEAS_COND_AXIS_UNIT-28 "mm"
*MEAS_COND_AXIS_UNIT-29 ""
*MEAS_COND_AXIS_UNIT-30 ""
*MEAS_COND_AXIS_UNIT-31 ""
*MEAS_COND_AXIS_UNIT-32 ""
*MEAS_COND_AXIS_UNIT-33 "div"
*MEAS_COND_COUNTER_CNTLOSS_CORR "0.0000000000"
*MEAS_COND_COUNTER_PHABASE "35.0000000000"
*MEAS_COND_COUNTER_PHAWINDOW "16.0000000000"
*MEAS_COND_COUNTER_PHA_UNIT "div"
*MEAS_COND_COUNTER_TAUDIFF "0.0000000000"
*MEAS_COND_COUNTER_TAUINT "0.0000000000"
*MEAS_COND_IRRADIATION_MODE "OFF"
*MEAS_COND_IRRADIATION_WIDTH ""
*MEAS_COND_OPT_ATTR "集中法"
*MEAS_COND_OPT_NAME "@集中法"
*MEAS_COND_UNSYMMETRIC_MODE "OFF"
*MEAS_COND_XG_CURRENT "30.0000000000"
*MEAS_COND_XG_VOLTAGE "40.0000000000"
*MEAS_COND_XG_WAVE_TYPE "Ka"
*MEAS_DATA_COUNT "2751.0000000000"
*MEAS_SCAN_AXIS_X "2θ/ω"
*MEAS_SCAN_AXIS_X_INTERNAL "TwoThetaOmega"
*MEAS_SCAN_END_TIME "12/08/24 16:45:41"
*MEAS_SCAN_MODE "CONTINUOUS"
*MEAS_SCAN_MONITOR "0"
*MEAS_SCAN_RESOLUTION_X "0.0002"
*MEAS_SCAN_SPEED "5.098477"
*MEAS_SCAN_SPEED_UNIT "deg/min"
*MEAS_SCAN_SPEED_USER "5.000000"
*MEAS_SCAN_START "5.0000000000"
*MEAS_SCAN_START_TIME "12/08/24 16:33:35"
*MEAS_SCAN_STEP "0.0200000000"
*MEAS_SCAN_STOP "60.0000000000"
*MEAS_SCAN_UNIT_X "deg"
*MEAS_SCAN_UNIT_Y "counts"
*RAS_HEADER_END
*RAS_INT_START
5.0000 3122.0000 1.0000
5.0200 3111.0000 1.0000
5.0400 3107.0000 1.0000
5.0600 3161.0000 1.0000
5.0800 3120.0000 1.0000
5.1000 3075.0000 1.0000
5.1200 3054.0000 1.0000
5.1400 3092.0000 1.0000
5.1600 3078.0000 1.0000
5.1800 3145.0000 1.0000
5.2000 3126.0000 1.0000
5.2200 3078.0000 1.0000
5.2400 3083.0000 1.0000
5.2600 3086.0000 1.0000
5.2800 3025.0000 1.0000
5.3000 3080.0000 1.0000
5.3200 3048.0000 1.0000
5.3400 3040.0000 1.0000
5.3600 3111.0000 1.0000
5.3800 3121.0000 1.0000
5.4000 3014.0000 1.0000
5.4200 3121.0000 1.0000
5.4400 3068.0000 1.0000
5.4600 3061.0000 1.0000
5.4800 3165.0000 1.0000
5.5000 3032.0000 1.0000
5.5200 3095.0000 1.0000
5.5400 3135.0000 1.0000
5.5600 3005.0000 1.0000
5.5800 3019.0000 1.0000
5.6000 3068.0000 1.0000
5.6200 3100.0000 1.0000
5.6400 2957.0000 1.0000
5.6600 2986.0000 1.0000
5.6800 2994.0000 1.0000
5.7000 3032.0000 1.0000
5.7200 3066.0000 1.0000
5.7400 3090.0000 1.0000
5.7600 3086.0000 1.0000
5.7800 3049.0000 1.0000
5.8000 3001.0000 1.0000
5.8200 3119.0000 1.0000
5.8400 3052.0000 1.0000
5.8600 2992.0000 1.0000
5.8800 2971.0000 1.0000
5.9000 2984.0000 1.0000
5.9200 3009.0000 1.0000
5.9400 2959.0000 1.0000
5.9600 2852.0000 1.0000
5.9800 2985.0000 1.0000
6.0000 3004.0000 1.0000
6.0200 2976.0000 1.0000
6.0400 2965.0000 1.0000
6.0600 2979.0000 1.0000
6.0800 2946.0000 1.0000
6.1000 2961.0000 1.0000
6.1200 2996.0000 1.0000
6.1400 2972.0000 1.0000
6.1600 2969.0000 1.0000
6.1800 2963.0000 1.0000
6.2000 3014.0000 1.0000
6.2200 3034.0000 1.0000
6.2400 2988.0000 1.0000
6.2600 2911.0000 1.0000
6.2800 3009.0000 1.0000
6.3000 3005.0000 1.0000
6.3200 2980.0000 1.0000
6.3400 2909.0000 1.0000
6.3600 2895.0000 1.0000
6.3800 2892.0000 1.0000
6.4000 2989.0000 1.0000
6.4200 2963.0000 1.0000
6.4400 2834.0000 1.0000
6.4600 3037.0000 1.0000
6.4800 2989.0000 1.0000
6.5000 2934.0000 1.0000
6.5200 2838.0000 1.0000
6.5400 2993.0000 1.0000
6.5600 2978.0000 1.0000
6.5800 2903.0000 1.0000
6.6000 2967.0000 1.0000
6.6200 2895.0000 1.0000
6.6400 2965.0000 1.0000
6.6600 2992.0000 1.0000
6.6800 2936.0000 1.0000
6.7000 2917.0000 1.0000
6.7200 2882.0000 1.0000
6.7400 2928.0000 1.0000
6.7600 2916.0000 1.0000
6.7800 2825.0000 1.0000
6.8000 2858.0000 1.0000
6.8200 2895.0000 1.0000
6.8400 2881.0000 1.0000
6.8600 2898.0000 1.0000
6.8800 2883.0000 1.0000
6.9000 2886.0000 1.0000
6.9200 2898.0000 1.0000
6.9400 2983.0000 1.0000
6.9600 2882.0000 1.0000
6.9800 2855.0000 1.0000
7.0000 2829.0000 1.0000
7.0200 2889.0000 1.0000
7.0400 2815.0000 1.0000
7.0600 2861.0000 1.0000
7.0800 2890.0000 1.0000
7.1000 2886.0000 1.0000
7.1200 2863.0000 1.0000
7.1400 2818.0000 1.0000
7.1600 2856.0000 1.0000
7.1800 2866.0000 1.0000
7.2000 2810.0000 1.0000
7.2200 2677.0000 1.0000
7.2400 2772.0000 1.0000
7.2600 2749.0000 1.0000
7.2800 2800.0000 1.0000
7.3000 2870.0000 1.0000
7.3200 2804.0000 1.0000
7.3400 2740.0000 1.0000
7.3600 2743.0000 1.0000
7.3800 2908.0000 1.0000
7.4000 2883.0000 1.0000
7.4200 2871.0000 1.0000
7.4400 2710.0000 1.0000
7.4600 2706.0000 1.0000
7.4800 2733.0000 1.0000
7.5000 2735.0000 1.0000
7.5200 2754.0000 1.0000
7.5400 2717.0000 1.0000
7.5600 2837.0000 1.0000
7.5800 2706.0000 1.0000
7.6000 2765.0000 1.0000
7.6200 2727.0000 1.0000
7.6400 2721.0000 1.0000
7.6600 2856.0000 1.0000
7.6800 2684.0000 1.0000
7.7000 2713.0000 1.0000
7.7200 2739.0000 1.0000
7.7400 2700.0000 1.0000
7.7600 2727.0000 1.0000
7.7800 2663.0000 1.0000
7.8000 2758.0000 1.0000
7.8200 2666.0000 1.0000
7.8400 2744.0000 1.0000
7.8600 2710.0000 1.0000
7.8800 2791.0000 1.0000
7.9000 2682.0000 1.0000
7.9200 2747.0000 1.0000
7.9400 2730.0000 1.0000
7.9600 2703.0000 1.0000
7.9800 2654.0000 1.0000
8.0000 2660.0000 1.0000
8.0200 2670.0000 1.0000
8.0400 2698.0000 1.0000
8.0600 2661.0000 1.0000
8.0800 2720.0000 1.0000
8.1000 2632.0000 1.0000
8.1200 2609.0000 1.0000
8.1400 2716.0000 1.0000
8.1600 2696.0000 1.0000
8.1800 2650.0000 1.0000
8.2000 2708.0000 1.0000
8.2200 2753.0000 1.0000
8.2400 2643.0000 1.0000
8.2600 2638.0000 1.0000
8.2800 2655.0000 1.0000
8.3000 2604.0000 1.0000
8.3200 2645.0000 1.0000
8.3400 2630.0000 1.0000
8.3600 2661.0000 1.0000
8.3800 2653.0000 1.0000
8.4000 2624.0000 1.0000
8.4200 2617.0000 1.0000
8.4400 2512.0000 1.0000
8.4600 2612.0000 1.0000
8.4800 2667.0000 1.0000
8.5000 2553.0000 1.0000
8.5200 2656.0000 1.0000
8.5400 2568.0000 1.0000
8.5600 2579.0000 1.0000
8.5800 2584.0000 1.0000
8.6000 2615.0000 1.0000
8.6200 2619.0000 1.0000
8.6400 2551.0000 1.0000
8.6600 2559.0000 1.0000
8.6800 2545.0000 1.0000
8.7000 2514.0000 1.0000
8.7200 2547.0000 1.0000
8.7400 2593.0000 1.0000
8.7600 2530.0000 1.0000
8.7800 2629.0000 1.0000
8.8000 2517.0000 1.0000
8.8200 2534.0000 1.0000
8.8400 2529.0000 1.0000
8.8600 2512.0000 1.0000
8.8800 2471.0000 1.0000
8.9000 2528.0000 1.0000
8.9200 2508.0000 1.0000
8.9400 2528.0000 1.0000
8.9600 2369.0000 1.0000
8.9800 2595.0000 1.0000
9.0000 2458.0000 1.0000
9.0200 2521.0000 1.0000
9.0400 2477.0000 1.0000
9.0600 2498.0000 1.0000
9.0800 2438.0000 1.0000
9.1000 2522.0000 1.0000
9.1200 2548.0000 1.0000
9.1400 2462.0000 1.0000
9.1600 2458.0000 1.0000
9.1800 2373.0000 1.0000
9.2000 2431.0000 1.0000
9.2200 2506.0000 1.0000
9.2400 2545.0000 1.0000
9.2600 2467.0000 1.0000
9.2800 2468.0000 1.0000
9.3000 2435.0000 1.0000
9.3200 2575.0000 1.0000
9.3400 2505.0000 1.0000
9.3600 2501.0000 1.0000
9.3800 2469.0000 1.0000
9.4000 2454.0000 1.0000
9.4200 2491.0000 1.0000
9.4400 2460.0000 1.0000
9.4600 2733.0000 1.0000
9.4800 3385.0000 1.0000
9.5000 5357.0000 1.0000
9.5200 4960.0000 1.0000
9.5400 3550.0000 1.0000
9.5600 2657.0000 1.0000
9.5800 2528.0000 1.0000
9.6000 2420.0000 1.0000
9.6200 2532.0000 1.0000
9.6400 2421.0000 1.0000
9.6600 2368.0000 1.0000
9.6800 2320.0000 1.0000
9.7000 2347.0000 1.0000
9.7200 2382.0000 1.0000
9.7400 2356.0000 1.0000
9.7600 2333.0000 1.0000
9.7800 2366.0000 1.0000
9.8000 2324.0000 1.0000
9.8200 2302.0000 1.0000
9.8400 2285.0000 1.0000
9.8600 2327.0000 1.0000
9.8800 2318.0000 1.0000
9.9000 2264.0000 1.0000
9.9200 2305.0000 1.0000
9.9400 2390.0000 1.0000
9.9600 2318.0000 1.0000
9.9800 2362.0000 1.0000
10.0000 2314.0000 1.0000
10.0200 2284.0000 1.0000
10.0400 2307.0000 1.0000
10.0600 2313.0000 1.0000
10.0800 2321.0000 1.0000
10.1000 2299.0000 1.0000
10.1200 2278.0000 1.0000
10.1400 2307.0000 1.0000
10.1600 2310.0000 1.0000
10.1800 2284.0000 1.0000
10.2000 2288.0000 1.0000
10.2200 2311.0000 1.0000
10.2400 2274.0000 1.0000
10.2600 2247.0000 1.0000
10.2800 2217.0000 1.0000
10.3000 2231.0000 1.0000
10.3200 2252.0000 1.0000
10.3400 2195.0000 1.0000
10.3600 2232.0000 1.0000
10.3800 2221.0000 1.0000
10.4000 2238.0000 1.0000
10.4200 2253.0000 1.0000
10.4400 2176.0000 1.0000
10.4600 2206.0000 1.0000
10.4800 2237.0000 1.0000
10.5000 2162.0000 1.0000
10.5200 2158.0000 1.0000
10.5400 2257.0000 1.0000
10.5600 2172.0000 1.0000
10.5800 2118.0000 1.0000
10.6000 2154.0000 1.0000
10.6200 2136.0000 1.0000
10.6400 2196.0000 1.0000
10.6600 2224.0000 1.0000
10.6800 2182.0000 1.0000
10.7000 2190.0000 1.0000
10.7200 2142.0000 1.0000
10.7400 2125.0000 1.0000
10.7600 2134.0000 1.0000
10.7800 2115.0000 1.0000
10.8000 2150.0000 1.0000
10.8200 2121.0000 1.0000
10.8400 2066.0000 1.0000
10.8600 2188.0000 1.0000
10.8800 2104.0000 1.0000
10.9000 2084.0000 1.0000
10.9200 2122.0000 1.0000
10.9400 2169.0000 1.0000
10.9600 2134.0000 1.0000
10.9800 2089.0000 1.0000
11.0000 2096.0000 1.0000
11.0200 2095.0000 1.0000
11.0400 2014.0000 1.0000
11.0600 2027.0000 1.0000
11.0800 2083.0000 1.0000
11.1000 2023.0000 1.0000
11.1200 2014.0000 1.0000
11.1400 2119.0000 1.0000
11.1600 2030.0000 1.0000
11.1800 1978.0000 1.0000
11.2000 2000.0000 1.0000
11.2200 1994.0000 1.0000
11.2400 2046.0000 1.0000
11.2600 2002.0000 1.0000
11.2800 2059.0000 1.0000
11.3000 1929.0000 1.0000
11.3200 1937.0000 1.0000
11.3400 2013.0000 1.0000
11.3600 2112.0000 1.0000
11.3800 2041.0000 1.0000
11.4000 2041.0000 1.0000
11.4200 2022.0000 1.0000
11.4400 2018.0000 1.0000
